#L/mm F_1/kHz \phi_1/° A_1/V F_2/kHz \phi_2/° A_2/V
50  6.83    37      6.03    10.206  141     3.58
75  6.84    -137    5.31    9.106   -3      4.10
100 6.843   37.5    4.42    8.546   -175    3.82
125 6.856   -145    3.74    8.219   10      3.62
150 6.855   31.2    3.22    7.998   -178    2.73
175 6.859   -140.4  2.97    7.829   20.8    3.02
200 6.856   40      2.57    7.708   -158    2.73
250 6.856   36      2.03    7.539   -154    2.27
300 6.853   34.5    1.95    7.425   -150    2.03
350 6.853   39      1.83    7.345   -150    1.85
400 6.854   38      1.63    7.283   -145.1  1.67
450 6.855   36      1.46    7.238   -147.4  1.51